# VERSION   1.1
# RECEIVER hop2
# AGENCY Norwegian Mapping Authority
# YEARDOY 2020 001
% These scintillation data were collected by the Norwegian Mapping Authority (NMA)
% The data in this file is from the receiver "hop2"
%
% The S4 index is calculated by computing the normalized standard deviation of the detrended signal power time series,
% and correcting for the ambient noise level.
% The signal power is detrended by filtering the measurement time series Iorig(t) with a 6th order Butterworth low-pass filter,
% and then dividing Iorig(t) by the filter output Ifiltered(t).
%
% The sigma phi index is calculated by detrending raw measurements by a 6th order Butterworth high-pass filter, with a cutoff frequency of 0.3 Hz.
% After detrending, the first and last parts of the time series is truncated to avoid any edge effects.
% Finally, the index is calculated based on one minute of data.
%
%
% Now lets see some data:
2015 03 17 00 00  30.0 
   5   74.32   82.39   11.14   0.096   0.045   0.000   0.155   0.063   0.000
   7  357.73   77.89   30.77   0.054   0.029   0.000   0.099   0.043   0.000
  13   43.08   77.90   28.22   0.073   0.040   0.000   0.000   0.032   0.000
  15   51.81   72.54   18.63   0.093   0.039   0.000   0.000   0.030   0.000
  16   11.21   70.98   41.91   0.059   0.021   0.000   0.000   0.016   0.000
  18   26.76   68.87   30.46   0.055   0.038   0.000   0.000   0.029   0.000
  19  353.00   73.48   25.82   0.062   0.028   0.000   0.000   0.021   0.000
  21   26.79   73.00   55.65   0.031   0.022   0.000   0.000   0.016   0.000
  22   20.09   58.23    5.77   0.106   0.000   0.000   0.000   0.000   0.000
  27    9.01   73.41   52.36   0.044   0.049   0.000   0.000   0.036   0.000
  30    8.97   81.40   25.80   0.067   0.030   0.000   0.098   0.042   0.000
  42   33.41   82.24   22.13   0.158   0.079   0.000   0.128   0.071   0.000
  43   30.58   74.87   51.29   0.041   0.023   0.000   0.047   0.030   0.000
  44   31.03   68.70   26.97   0.103   0.043   0.000   0.101   0.043   0.000
  50    0.77   72.52   33.58   0.151   0.059   0.000   0.067   0.032   0.000
  51    9.30   77.86   42.85   0.093   0.051   0.000   0.104   0.058   0.000
  52   53.06   85.04   13.15   0.174   0.079   0.000   0.143   0.063   0.000
  58   47.84   69.36   16.61   0.144   0.059   0.000   0.118   0.043   0.000
  59   23.43   73.32   66.43   0.041   0.027   0.000   0.051   0.033   0.000
  60    6.14   73.79   46.81   0.060   0.072   0.000   0.099   0.093   0.000
2015 03 17 00 01  30.0 020
   5   75.90   82.44   10.76   0.090   0.044   0.000   0.151   0.064   0.000
   7  357.54   77.85   30.67   0.058   0.034   0.000   0.105   0.043   0.000
  13   42.82   77.94   28.39   0.075   0.039   0.000   0.000   0.031   0.000
  15   51.53   72.64   18.96   0.093   0.038   0.000   0.000   0.028   0.000
  16   11.20   70.92   41.54   0.049   0.020   0.000   0.000   0.015   0.000
  18   26.74   68.95   30.84   0.054   0.040   0.000   0.000   0.030   0.000
  19  353.38   73.51   26.26   0.070   0.028   0.000   0.000   0.022   0.000
  21   26.91   73.01   55.40   0.031   0.026   0.000   0.000   0.019   0.000
  22   20.11   58.54    6.18   0.219   0.000   0.000   0.000   0.000   0.000
  27    9.16   73.40   52.71   0.057   0.082   0.000   0.039   0.061   0.000
  30    8.77   81.34   25.97   0.082   0.031   0.000   0.098   0.042   0.000
  42   33.71   82.38   21.68   0.171   0.075   0.000   0.117   0.059   0.000
  43   30.55   74.92   51.35   0.041   0.023   0.000   0.051   0.025   0.000
  44   30.92   68.81   27.48   0.080   0.036   0.000   0.094   0.041   0.000
  50    0.58   72.45   33.13   0.138   0.059   0.000   0.062   0.029   0.000
  51    9.20   77.81   43.05   0.094   0.061   0.000   0.107   0.076   0.000
  52   50.94   84.91   13.61   0.180   0.078   0.000   0.128   0.054   0.000
  58   48.21   69.20   16.11   0.148   0.059   0.000   0.151   0.059   0.000
  59   23.58   73.30   65.92   0.043   0.027   0.000   0.053   0.033   0.000
  60    6.36   73.81   47.35   0.067   0.083   0.000   0.109   0.109   0.000
